"ACME_control" "ACME_treated" "ADE_control" "ADE_treated" "Prop_Mediated_control" "Prop_Mediated_treated" "ACME_average" "ADE_average" "Prop_Mediated_average"
"Fp1" -7.59485474301378e-05 -0.00013937948187979 -0.10382218558853 -0.10388561652298 0.000660100711446383 0.00141105882007298 -0.000107664014654964 -0.103853901055755 0.00103557976575968
"AF7" -0.000400780755130898 -0.000412907152809499 -0.103431601434991 -0.103443727832669 0.00376212364915918 0.00361245216560591 -0.000406843953970198 -0.10343766463383 0.00368728790738254
"AF3" -0.000492419712265502 -0.000790546467165639 -0.103501413185397 -0.103799539940297 0.00435244033412726 0.0070611856066481 -0.000641483089715571 -0.103650476562847 0.00570681297038768
"F1" -0.000355507451834247 -0.0003065930321258 -0.103649147094326 -0.103600232674618 0.00323444336368163 0.00256777114157892 -0.000331050241980024 -0.103624689884472 0.00290110725263028
"F3" -4.16753194704427e-05 -0.000142859321976058 -0.10382618359384 -0.103927367596346 0.000138846106460249 0.00117155277867548 -9.22673207232504e-05 -0.103876775595093 0.000655199442567866
"F5" -6.33340061847875e-05 -0.000195872268677588 -0.103527413317564 -0.103659951580057 0.000350186028489594 0.00172129955020857 -0.000129603137431188 -0.103593682448811 0.00103574278934908
"F7" 0.000505518781173922 0.000273254690655788 -0.104174362869758 -0.104406626960276 -0.00435544872032208 -0.00228725923014714 0.000389386735914855 -0.104290494915017 -0.00332135397523461
"FT7" 0.000331543245611349 0.000115165107802571 -0.103863600991887 -0.104079979129696 -0.00279797900606478 -0.000905384605138239 0.00022335417670696 -0.103971790060792 -0.00185168180560151
"FC5" 4.24580390151907e-05 0.000248850409534419 -0.103853733241703 -0.103647340871184 -0.000253055336485075 -0.00204945602324549 0.000145654224274805 -0.103750537056443 -0.00115125567986528
"FC3" -4.70938650497717e-05 -0.000110608757045183 -0.103475075639221 -0.103538590531217 0.000240637198445608 0.000908200069010837 -7.88513110474773e-05 -0.103506833085219 0.000574418633728223
"FC1" -0.000331012938935954 -0.000355620594296251 -0.103664399667705 -0.103689007323065 0.0029213595001422 0.00310134620632069 -0.000343316766616102 -0.103676703495385 0.00301135285323145
"C1" -0.000280850827466525 -0.000221499639788537 -0.103383865206692 -0.103324514019014 0.00234011386632759 0.00176001884919303 -0.000251175233627531 -0.103354189612853 0.00205006635776031
"C3" -0.00027621728123809 -0.000224829673949791 -0.103351860493574 -0.103300472886286 0.00235428351723622 0.00188799412300341 -0.00025052347759394 -0.10332616668993 0.00212113882011982
"C5" -5.28536746139474e-05 -7.31860585093445e-05 -0.103892913600027 -0.103913245983922 0.000299902694312068 0.000446217346607377 -6.3019866561646e-05 -0.103903079791975 0.000373060020459723
"T7" -7.38091844198626e-06 2.64935109791228e-05 -0.103876460351104 -0.103842585921683 1.03214145208688e-05 -0.000113080405248075 9.55629626856825e-06 -0.103859523136393 -5.13794953636029e-05
"TP7" -0.000347448387292259 0.000253490456768079 -0.104285704149082 -0.103684765305021 0.00306290773275261 -0.00224091716310245 -4.69789652620902e-05 -0.103985234727051 0.000410995284825079
"CP5" -0.000122537530943118 -0.000339445172997119 -0.10395457285039 -0.104171480492444 0.00093104376133805 0.00286507470148401 -0.000230991351970119 -0.104063026671417 0.00189805923141103
"CP3" -0.000333368369684886 -0.000148126339525166 -0.103696988084256 -0.103511746054096 0.00284795449529925 0.00117863429083067 -0.000240747354605026 -0.103604367069176 0.00201329439306496
"CP1" 0.000473508653687749 -0.000181157761135717 -0.103644453623563 -0.104299120038386 -0.00436439135789466 0.00162589238816395 0.000146175446276016 -0.103971786830975 -0.00136924948486536
"P1" -4.12930661966795e-05 -0.000330728231342139 -0.103657982834072 -0.103947417999217 0.000386387381759365 0.00289789720539185 -0.000186010648769409 -0.103802700416644 0.00164214229357561
"P3" -0.000348127908283365 -0.000312093741194616 -0.103428088908543 -0.103392054741454 0.00299469018970043 0.00272213436967287 -0.000330110824738991 -0.103410071824999 0.00285841227968665
"P5" -0.000200143779716664 -0.00140547712819122 -0.102507501546065 -0.103712834894539 0.00194151768343449 0.0131342342496793 -0.000802810453953944 -0.103110168220302 0.00753787596655688
"P7" -6.61612280710331e-06 1.39645676964893e-05 -0.103920120906185 -0.103899540215681 7.94876187701839e-06 -3.61266000730001e-05 3.674222444693e-06 -0.103909830560933 -1.40889190979909e-05
"P9" 5.74752140589867e-06 1.57566182170096e-06 -0.10433003096649 -0.104334202826074 -7.71160675101553e-06 -1.79482054301761e-06 3.66159161379981e-06 -0.104332116896282 -4.75321364701657e-06
"PO7" 2.67704669378263e-05 4.54233840017336e-05 -0.103654863642821 -0.103636210725757 -7.21635762517546e-05 -0.000257764418158445 3.609692546978e-05 -0.103645537184289 -0.0001649639972051
"PO3" -0.000283164882334908 -0.000119956987948713 -0.104129335587459 -0.103966127693073 0.00236753869994777 0.000871484887265415 -0.000201560935141811 -0.104047731640266 0.00161951179360659
"O1" -2.87732206909519e-05 -1.96301235228643e-05 -0.103493093637981 -0.103483950540813 0.000110487360877223 4.95716169192636e-05 -2.42016721069081e-05 -0.103488522089397 8.00294888982433e-05
"Iz" 0.000216663142934007 0.000306993997251111 -0.104023580940712 -0.103933250086395 -0.00200556031958661 -0.0028737251832812 0.000261828570092559 -0.103978415513554 -0.00243964275143391
"Oz" 4.16924973646485e-05 -9.37295046959434e-06 -0.103988129655453 -0.104039195103288 -0.000342788535857109 3.8465129461595e-05 1.61597734475271e-05 -0.10401366237937 -0.000152161703197757
"POz" -0.00017731235593918 -0.000149600428175623 -0.103805951267843 -0.103778239340079 0.00143319741260563 0.00106985945163225 -0.000163456392057401 -0.103792095303961 0.00125152843211894
"Pz" -0.000332789584586577 -0.000199967660919157 -0.103546048788073 -0.103413226864406 0.00309338788835839 0.00176146179289166 -0.000266378622752867 -0.103479637826239 0.00242742484062502
"CPz" 2.80611907308291e-05 -0.000366725376269203 -0.103624793291451 -0.104019579858451 -0.000188454777397661 0.0031803540902876 -0.000169332092769187 -0.103822186574951 0.00149594965644497
"Fpz" -0.000348901439285869 -0.000150128722046292 -0.10329290778061 -0.103094135063371 0.00318961133009381 0.00122254109559677 -0.000249515080666081 -0.10319352142199 0.00220607621284529
"Fp2" -0.000379841847342887 -0.000844380238820799 -0.102757193037829 -0.103221731429307 0.00368164679983638 0.00810205036469075 -0.000612111043081843 -0.102989462233568 0.00589184858226356
"AF8" -0.000854511787221735 -0.000863188688276463 -0.10307863256076 -0.103087309461815 0.00798670758730842 0.00794559397333599 -0.000858850237749099 -0.103082971011288 0.00796615078032221
"AF4" -0.000855814284234062 -0.000756661409626153 -0.103109730998795 -0.103010578124187 0.00796311472290071 0.00686293404856552 -0.000806237846930108 -0.103060154561491 0.00741302438573311
"AFz" -0.000425366284080066 -0.000430769561267576 -0.103067300399331 -0.103072703676519 0.00377218980070774 0.00383224142785126 -0.000428067922673821 -0.103070002037925 0.0038022156142795
"Fz" -2.41581367556229e-05 -2.57785165616534e-05 -0.10389239021988 -0.103894010599686 0.00011241904756728 0.000111845669756412 -2.49683266586382e-05 -0.103893200409783 0.000112132358661846
"F2" -3.21215025908285e-05 -3.20879361341949e-05 -0.103775315103706 -0.103775281537249 0.000109993217780327 0.000158697864817564 -3.21047193625117e-05 -0.103775298320478 0.000134345541298945
"F4" 7.84410573651301e-05 0.000186650865566802 -0.103807198721671 -0.103698988913469 -0.00052144942458256 -0.0015576910359849 0.000132545961465966 -0.10375309381757 -0.00103957023028373
"F6" 0.000423494910594753 0.000587424424553841 -0.104469628392562 -0.104305698878603 -0.00376716658578724 -0.00529414139226144 0.000505459667574297 -0.104387663635582 -0.00453065398902434
"F8" 0.000103046577891619 5.95943231990302e-05 -0.104293079676827 -0.104336531931519 -0.00069696400125618 -0.000330629716142245 8.13204505453248e-05 -0.104314805804173 -0.000513796858699212
"FT8" 0.000408478562789014 -0.000131300462045293 -0.103794539039515 -0.104334318064349 -0.00370235656427221 0.000960288679033627 0.000138589050371861 -0.104064428551932 -0.00137103394261929
"FC6" -3.03201099457888e-05 -4.97549873130384e-05 -0.103785710895016 -0.103805145772383 0.000111577693681963 0.000299050245778058 -4.00375486294136e-05 -0.1037954283337 0.00020531396973001
"FC4" -9.40536190879675e-05 -0.000129673838920009 -0.103482850576548 -0.10351847079638 0.000658075314783581 0.00102126947194677 -0.000111863729003988 -0.103500660686464 0.000839672393365173
"FC2" -0.000292835568611345 -0.000226837726209759 -0.104246393734562 -0.104180395892161 0.00265027643256232 0.0018299146844832 -0.000259836647410552 -0.104213394813361 0.00224009555852276
"FCz" 1.74023892798e-05 -0.000285008637002687 -0.103419071951277 -0.10372148297756 -9.99659696958449e-05 0.00242283057590481 -0.000133803123861444 -0.103570277464419 0.00116143230310448
"Cz" -0.000401398916418869 -0.00054976900965617 -0.103139409237874 -0.103287779331111 0.00350121562585323 0.00502165952059946 -0.00047558396303752 -0.103213594284493 0.00426143757322635
"C2" -0.000179445424922931 -0.000798524922182456 -0.102623093204958 -0.103242172702218 0.00164892933422931 0.00765821184556818 -0.000488985173552694 -0.102932632953588 0.00465357058989875
"C4" -0.000183120113373478 -0.00012006534742452 -0.103404174879419 -0.10334112011347 0.00144613325380139 0.000885096856677942 -0.000151592730398999 -0.103372647496445 0.00116561505523967
"C6" -0.000167868855203436 6.07302484986444e-05 -0.103906755813046 -0.103678156709344 0.00142058314692477 -0.000349368455313652 -5.35693033523956e-05 -0.103792456261195 0.000535607345805557
"T8" 3.51385440053544e-05 -0.000164162146575497 -0.10357780562464 -0.103777106315221 -0.000281729534164055 0.00133345449858746 -6.45118012850713e-05 -0.103677455969931 0.000525862482211703
"TP8" -0.000456376491960333 -0.000185953576931164 -0.103905790376269 -0.10363536746124 0.00406658424585213 0.00165081095130579 -0.000321165034445748 -0.103770578918755 0.00285869759857896
"CP6" -5.65662394181341e-05 -6.24914792677755e-05 -0.103926760141108 -0.103932685380958 0.000298702081588591 0.00033880998930685 -5.95288593429548e-05 -0.103929722761033 0.000318756035447721
"CP4" -0.000396586295047764 -7.49727951422028e-05 -0.103595850368562 -0.103274236868656 0.00368394156848145 0.000667924851934618 -0.000235779545094983 -0.103435043618609 0.00217593321020803
"CP2" 3.4843099422143e-05 -1.65791740597461e-05 -0.103858775929894 -0.103910198203376 -0.000194363937141104 5.58336933453239e-05 9.13196268119846e-06 -0.103884487066635 -6.926512189789e-05
"P2" -2.99417592238902e-05 -1.39784899595092e-05 -0.103893128432691 -0.103877165163427 0.000127711135277456 5.86509287818778e-05 -2.19601245916997e-05 -0.103885146798059 9.31810320296669e-05
"P4" -7.87980808587055e-06 -3.45214738476722e-06 -0.103983234457063 -0.103978806796361 3.1367675780202e-05 9.74934124300172e-06 -5.66597773531888e-06 -0.103981020626712 2.05585085116019e-05
"P6" 0.000399299829899567 0.000116860321355576 -0.103805257824408 -0.104087697332951 -0.00358718486964073 -0.00102469840598307 0.000258080075627571 -0.10394647757868 -0.0023059416378119
"P8" -0.000139595352310164 -0.000139387743351142 -0.103137321587707 -0.103137113978748 0.000963985208290899 0.00102264328736179 -0.000139491547830653 -0.103137217783228 0.000993314247826346
"P10" 0.000329482457114075 0.000130831343040179 -0.103857964470466 -0.10405661558454 -0.00281688245401166 -0.000933430809781647 0.000230156900077127 -0.103957290027503 -0.00187515663189665
"PO8" 0.000246173390353315 0.000175928484743463 -0.104222274157611 -0.104292519063221 -0.00202656527960117 -0.00137202992405984 0.000211050937548389 -0.104257396610416 -0.0016992976018305
"PO4" 0.00108804282987598 -6.88548402729381e-05 -0.103913020754421 -0.10506991842457 -0.0101072524622442 0.000597650612721791 0.00050959399480152 -0.104491469589495 -0.00475480092476121
"O2" 0.000194665033581249 0.00021638873833795 -0.103815037989985 -0.103793314285229 -0.00166867416645612 -0.00187274684817954 0.000205526885959599 -0.103804176137607 -0.00177071050731783
