"ACME_control" "ACME_treated" "ADE_control" "ADE_treated" "Prop_Mediated_control" "Prop_Mediated_treated" "ACME_average" "ADE_average" "Prop_Mediated_average"
"Fp1" -1.33759410599973e-05 -9.88951941554742e-05 -4.65229703994967e-05 -0.000132042223494974 5.15699251321009e-05 0.0122482171629306 -5.61355676077358e-05 -8.92825969472352e-05 0.00614989354403136
"AF7" -8.25645384426146e-06 -0.000471291933025337 0.000322561331584002 -0.000140474147597073 0.0186110090112438 0.296948363755256 -0.000239774193434799 9.10435919934646e-05 0.15777968638325
"AF3" -1.81572843620452e-05 -5.48078597958492e-05 -9.61728624905052e-05 -0.000132823437924309 0.0103970198560421 0.0569429683346924 -3.64825720789472e-05 -0.000114498150207407 0.0336699940953673
"F1" 9.04133857910244e-05 -0.000162151652290582 1.39526249309554e-05 -0.000238612413150651 -0.0368526220249384 0.0588374475271989 -3.58691332497786e-05 -0.000112329894109848 0.0109924127511303
"F3" -2.16164332466648e-06 -5.25731753397803e-06 -0.000150149112629423 -0.000153244786838735 0.00132088971662531 0.0190894435350013 -3.70948042932226e-06 -0.000151696949734079 0.0102051666258133
"F5" 1.28662911926983e-05 0.000114124920211469 -0.000246300532064112 -0.000145041903045341 -0.0041567304715618 0.00533751337037206 6.34956057020838e-05 -0.000195671217554727 0.000590391449405133
"F7" 4.03615465460657e-05 0.000149542649612711 -0.000296206460920888 -0.000187025357854243 -0.00589996629213267 -0.0213614919389877 9.49520980793882e-05 -0.000241615909387565 -0.0136307291155602
"FT7" 0.000132161823205109 0.000318981031431798 -0.00045606220584206 -0.000269242997615371 -0.0521531458689801 -0.140887228057734 0.000225571427318454 -0.000362652601728715 -0.0965201869633568
"FC5" 7.81283763462302e-05 0.000201164430755783 -0.000357285629474612 -0.000234249575065059 -0.0117672108418449 -0.0328957475407876 0.000139646403551007 -0.000295767602269836 -0.0223314791913162
"FC3" -1.10674713172407e-05 6.09100833197172e-05 -0.000209784622087134 -0.000137807067450176 0.000503385669769064 0.0114783593545866 2.49213060012382e-05 -0.000173795844768655 0.00599087251217782
"FC1" -2.03765219764027e-05 -0.000147145609197569 -2.91801355522338e-06 -0.00012968710077639 0.00353482001617823 0.0704783857364815 -8.37610655869859e-05 -6.63025571658065e-05 0.0370066028763298
"C1" 7.88122196220063e-05 -0.000277530291934008 0.000138764486710602 -0.000217578024845413 -0.027420369155432 0.159432479363461 -9.93590361560007e-05 -3.94067690674055e-05 0.0660060551040143
"C3" -4.01717889554865e-05 -6.18524409471313e-05 -7.44204170726951e-05 -9.610106906434e-05 0.0235972699659508 0.0472278149523387 -5.10121149513089e-05 -8.52607430685175e-05 0.0354125424591447
"C5" 4.83533855489769e-05 0.0001525277860983 -0.000300086390682141 -0.000195911990132818 -0.00766185982600065 -0.0354536479895493 0.000100440585823638 -0.00024799919040748 -0.021557753907775
"T7" -0.000256260262214816 0.000525398436483575 -0.000655979326535871 0.000125679372162519 0.110964658802638 -0.314884206876444 0.00013456908713438 -0.000265149977186676 -0.101959774036903
"TP7" 2.98736068237873e-05 0.000158068339070659 -0.000291860766006198 -0.000163666033759326 0.00117021597482253 -0.0298078265796564 9.39709729472234e-05 -0.000227763399882762 -0.0143188053024169
"CP5" -0.000266717451105273 0.000239786312242723 -0.000397006410401551 0.000109497352946445 0.146037200688804 -0.0934001147929336 -1.3465569431275e-05 -0.000143754528727553 0.026318542947935
"CP3" -1.84334989756841e-05 -6.42232097491932e-05 -8.17194991782111e-05 -0.00012750920995172 0.00576705480151681 0.0250622138202452 -4.13283543624386e-05 -0.000104614354564966 0.015414634310881
"CP1" 0.000223871088281698 -0.000222002120459389 7.33913424500529e-05 -0.000372481866291034 -0.157354766482813 0.0870234607527742 9.34483911154815e-07 -0.000149545261920491 -0.0351656528650193
"P1" -0.000282772418374709 -3.54286167084324e-05 -9.46065021027314e-05 0.000152737299563546 0.150018224688562 0.0121323635164522 -0.000159100517541571 2.90653987304071e-05 0.0810752941025072
"P3" 9.73266168195367e-07 -7.78980286621285e-06 -0.0001347679750087 -0.000143531044043108 -0.000278269871125847 0.0108824320495476 -3.40826834900874e-06 -0.000139149509525904 0.00530208108921086
"P5" -0.00023078797543612 0.000223496716702701 -0.000369862806326213 8.44218858126091e-05 0.0980983891275478 -0.0912046968569857 -3.64562936670942e-06 -0.000142720460256802 0.00344684613528104
"P7" -0.000278580839627108 0.000445417851526666 -0.000591219576788606 0.000132779114365168 0.116347194752559 -0.226287386993123 8.34185059497787e-05 -0.000229220231211719 -0.0549700961202819
"P9" -0.000636158592154611 -1.39412037414344e-05 -0.000140134226744958 0.000482083161668219 0.438000791632562 0.0035024458214454 -0.000325049897948023 0.000170974467461631 0.220751618727004
"PO7" -8.61658714428281e-05 0.000357609038693749 -0.000512481508899189 -6.87065987626123e-05 0.0477652835522639 -0.158300694283995 0.00013572158362546 -0.000290594053830901 -0.0552677053658656
"PO3" -0.000402282900515239 0.000338946520298965 -0.000487949936813995 0.000253279484000209 0.172744500528192 -0.157114733352099 -3.16681901081369e-05 -0.000117335226406893 0.00781488358804679
"O1" 1.51501142700608e-06 0.000127153958904465 -0.000278935597545375 -0.000153296650067917 0.00328622781027871 0.0554013871159514 6.43344851657355e-05 -0.000216116123806646 0.029343807463115
"Oz" 0.000253714869787652 0.000598059621744241 -0.000745297718861278 -0.00040095296690469 -0.0928512775229922 -0.368893608806889 0.000425887245765947 -0.000573125342882984 -0.23087244316494
"POz" -7.73643224286321e-07 0.000204377992840838 -0.000348682169329695 -0.00014353053326457 0.00533186634873288 -0.0291289006948058 0.000101802174808276 -0.000246106351297133 -0.0118985171730364
"Pz" -4.03532229170352e-06 1.06159057429304e-05 -0.000150855390663312 -0.000136204162628678 6.87831054684572e-06 0.00604743239436329 3.29029172561342e-06 -0.000143529776645995 0.00302715535245507
"CPz" -2.23609596306587e-07 -8.45652204480841e-08 -0.000141911755558171 -0.000141772711182313 0.000826549709697197 0.00745961507424918 -1.54087408377336e-07 -0.000141842233370242 0.00414308239197319
"Fpz" 7.40238970608629e-05 -0.000529442481635027 0.000393611977712477 -0.000209854400983413 -0.0378923863007259 0.334979810330638 -0.000227709292287082 9.18787883645322e-05 0.148543712014956
"Fp2" 2.8993420167299e-05 -0.000705566793559456 0.000553619421899607 -0.000180940791827148 -0.00478711714861387 0.500566225406311 -0.000338286686696079 0.000186339315036229 0.247889554128849
"AF8" -2.2257916598372e-05 -0.000117236536941188 -2.1728207125459e-05 -0.000116706827468275 0.00878216906186487 0.052495047913096 -6.97472267697799e-05 -6.92175172968669e-05 0.0306386084874804
"AF4" 3.10426593739886e-05 -0.000275404549720223 0.000124210645692994 -0.000182236563401217 -0.0074066841672983 0.175232193148051 -0.000122180945173117 -2.90129588541117e-05 0.0839127544903762
"AFz" 2.82367164405809e-05 -0.00020824904207964 6.20407909355153e-05 -0.000174444967584706 -0.00674499709050698 0.0953580074388432 -9.00061628195295e-05 -5.62020883245951e-05 0.0443065051741681
"Fz" 5.71813779098577e-05 -0.00014827726782719 -6.3625825255559e-06 -0.000211821228262603 -0.0161389118631428 0.0666848210458658 -4.55479449586659e-05 -0.000109091905394079 0.0252729545913615
"F2" 2.11419474503717e-06 -2.50489474116435e-05 -0.000140433742424495 -0.000167596884581176 -0.000385934959677617 0.0406976736062103 -1.14673763333032e-05 -0.000154015313502836 0.0201558693232663
"F4" -3.96849711027542e-05 -0.000122216047663394 -2.24583731784656e-05 -0.000104989449739106 0.0159698168860429 0.0656868683954474 -8.09505093830743e-05 -6.37239114587857e-05 0.0408283426407451
"F6" -1.99122784264078e-06 -3.1018467245035e-06 -0.000138754660205163 -0.000139865279087025 0.00471522344183224 0.0192260899322602 -2.54653728357214e-06 -0.000139309969646094 0.0119706566870462
"F8" 3.15866036594181e-06 3.2244105927923e-05 -0.00017571923571138 -0.000146633790149399 0.000591603714172073 0.00233875202122466 1.77013831469324e-05 -0.000161176512930389 0.00146517786769837
"FT8" 1.77977799569655e-05 2.26219148221878e-05 -0.000163409450505643 -0.000158585315640421 -0.000507504716216643 0.000376028693204404 2.02098473895766e-05 -0.000160997383073032 -6.57380115061194e-05
"FC6" 0.000127093329483839 0.000161955518446697 -0.000310878771608545 -0.000276016582645687 -0.0299831674168539 -0.0391796589078415 0.000144524423965268 -0.000293447677127116 -0.0345814131623477
"FC4" 9.21523415706632e-06 3.64093189846551e-05 -0.000174138881250491 -0.000146944796422902 0.00243373274710287 0.0103581208449726 2.28122765708607e-05 -0.000160541838836697 0.00639592679603772
"FC2" 1.58701253093643e-05 -3.16865351682213e-05 -0.000110392613418443 -0.000157949273896029 -0.0198378023090059 0.00649043827713073 -7.90820492942851e-06 -0.000134170943657236 -0.00667368201593757
"FCz" -9.26776488923581e-05 -0.000268592361937751 0.000116101100672458 -5.98136123729347e-05 0.036110599694738 0.139506822915364 -0.000180635005415054 2.81437441497616e-05 0.0878087113050512
"Cz" -0.000209111628341385 -0.000285556884542845 0.000143241297322601 6.67960411211408e-05 0.157506306892965 0.134786834424495 -0.000247334256442115 0.000105018669221871 0.14614657065873
"C2" -7.83682494890211e-05 -0.000184569867241654 5.8004238217895e-05 -4.81973795347382e-05 0.0297833119983456 0.0699593618766559 -0.000131469058365338 4.90342934157841e-06 0.0498713369375008
"C4" 4.9890213033619e-06 1.58692616552842e-05 -0.000148619101713355 -0.000137738861361433 0.00115768194104971 0.0170864515984693 1.0429141479323e-05 -0.000143178981537394 0.00912206676975952
"C6" 9.84648891021658e-05 5.89636059125857e-05 -0.000201596019609197 -0.000241097302798777 -0.016535722621092 -0.00525226116231892 7.87142475073758e-05 -0.000221346661203987 -0.0108939918917054
"T8" 2.19454982231278e-05 -2.28692669823361e-05 -0.000118633111188473 -0.000163447876393936 -0.00322527413647499 0.00351991855013877 -4.61884379604144e-07 -0.000141040493791205 0.000147322206831891
"TP8" 7.48911796209035e-05 7.16847102675224e-05 -0.00020925316349443 -0.000212459632847811 -0.00666572579431892 -0.00823438925696953 7.32879449442129e-05 -0.000210856398171121 -0.00745005752564422
"CP6" -4.50971379779091e-05 0.000101586914954878 -0.000237934351368535 -9.12502984357485e-05 0.00708249575160382 -0.0205149130854722 2.82448884884843e-05 -0.000164592324902142 -0.00671620866693419
"CP4" -6.15948572402031e-05 0.000202822094753169 -0.000352378094114792 -8.79611421214196e-05 0.0143039577358353 -0.0986806612325636 7.06136187564832e-05 -0.000220169618118106 -0.0421883517483642
"CP2" 1.57263030087312e-05 -4.62019895250187e-05 -9.94807688125287e-05 -0.000161409061346279 -0.00498208669849441 0.0104870477850645 -1.52378432581438e-05 -0.000130444915079404 0.00275248054328505
"P2" 1.9480485726552e-05 -3.57149121634092e-05 -0.000109162200732967 -0.000164357598622929 -0.00515029263721524 0.0122892133767124 -8.11721321842861e-06 -0.000136759899677948 0.00356946036974858
"P4" -0.000212801273107336 0.000143367672121006 -0.000291724905128474 6.4444040099868e-05 0.0954808929846292 -0.0693323640467559 -3.4716800493165e-05 -0.000113640432514303 0.0130742644689366
"P6" -0.00025075723912642 0.000388061933755474 -0.000529296649437157 0.000109522523444738 0.149775063582187 -0.22588403499429 6.86523473145273e-05 -0.00020988706299621 -0.0380544857060514
"P8" 0.000232048525811576 0.000142729615690488 -0.000290813362843797 -0.000380132272964886 -0.0963264521311891 -0.0523801649501598 0.000187389070751032 -0.000335472817904342 -0.0743533085406745
"P10" -0.000353871333365292 0.000699406803735744 -0.000851539390703866 0.000201738746397169 0.180481409162119 -0.473851145200449 0.000172767735185226 -0.000324900322153348 -0.146684868019165
"PO8" 0.000356592002836679 0.000660090002356753 -0.000803606626731754 -0.00050010862721168 -0.0999026872761781 -0.42283413044836 0.000508341002596716 -0.000651857626971717 -0.261368408862269
"PO4" -1.67694363718987e-05 0.000624555752265803 -0.00076719017862445 -0.000125864989986748 0.0407593241075103 -0.406700360475445 0.000303893157946952 -0.000446527584305599 -0.182970518183967
"O2" 0.000680002270199425 0.000874697160966462 -0.00102860798706285 -0.000833913096295814 -0.429659036244323 -0.630234182799293 0.000777349715582943 -0.000931260541679332 -0.529946609521808
