"ACME_control" "ACME_treated" "ADE_control" "ADE_treated" "Prop_Mediated_control" "Prop_Mediated_treated" "ACME_average" "ADE_average" "Prop_Mediated_average"
"Fp1" 0.00497538386946439 -0.0181253358485105 -0.0825977395533079 -0.105698459271283 -0.0487014167207349 0.177254060432471 -0.00657497598952304 -0.0941480994122954 0.0642763218558682
"AF7" -0.00453694331541744 -0.0134235856248254 -0.0870825935591742 -0.0959692358685821 0.0438125441513627 0.131141547699222 -0.0089802644701214 -0.0915259147138781 0.0874770459252924
"AF3" -0.000169769118556633 -0.00521542191050153 -0.095391987026197 -0.100437639818142 0.00168274654000793 0.0506140206508131 -0.00269259551452908 -0.0979148134221695 0.0261483835954105
"F1" -0.000268418295237203 0.000178437708578164 -0.100626174504994 -0.100179318501178 0.00105783132034226 -0.000629565279989018 -4.49902933295194e-05 -0.100402746503086 0.00021413302017662
"F3" 0.000277728771772408 7.80778208488662e-05 -0.100883860378363 -0.101083511329287 -0.00116034663879602 -0.000194040598206672 0.000177903296310637 -0.100983685853825 -0.000677193618501348
"F5" 0.000288160117781867 0.000734646976181611 -0.101634151276103 -0.101187664417703 -0.0012595649170745 -0.0054601612473712 0.000511403546981739 -0.101410907846903 -0.00335986308222285
"F7" 0.000769000791332323 -0.00184475999895059 -0.0986191426218807 -0.101232903412164 -0.00496168519046792 0.0163702413745898 -0.000537879603809133 -0.0999260230170222 0.00570427809206096
"FT7" 0.00224508351754438 -0.00151605745126913 -0.0990692789457945 -0.102830419914608 -0.0194538972466529 0.012991319332849 0.000364513033137625 -0.100949849430201 -0.00323128895690195
"FC5" 0.000512536552997423 -0.00166346532773119 -0.0988733160870603 -0.101049317967789 -0.00370910510678418 0.0146652492096748 -0.000575464387366885 -0.0999613170274246 0.00547807205144533
"FC3" -7.59378812025794e-05 8.12604087568816e-05 -0.100661270498009 -0.10050407220805 0.000135248688366168 -0.000192738799656241 2.66126377715108e-06 -0.100582671353029 -2.87450556450362e-05
"FC1" -0.000646220476879269 -0.000168379296369998 -0.100586371018748 -0.100108529838239 0.00406560152356612 0.000711593592285204 -0.000407299886624633 -0.100347450428493 0.00238859755792566
"C1" -0.00284399592707107 0.0039445551730519 -0.104590061077959 -0.0978015099778356 0.0262604614345986 -0.0369695446379959 0.000550279622990418 -0.101195785527897 -0.00535454160169862
"C3" -0.00221854018803765 0.000687834352811528 -0.101148644593311 -0.098242270052462 0.0194901246148686 -0.00550544173772566 -0.000765352917613061 -0.0996954573228866 0.00699234143857149
"C5" -0.000903875259005629 0.000492509356912438 -0.101134180423234 -0.0997377958073159 0.00764818359414491 -0.00368518435468767 -0.000205682951046595 -0.100435988115275 0.00198149961972862
"T7" -0.00022776994480058 5.23692117921667e-05 -0.100827280184049 -0.100547141027456 0.00078662136638378 -0.0001281393430088 -8.77003665042065e-05 -0.100687210605752 0.00032924101168749
"TP7" -0.00969645735216027 0.00204110868833004 -0.102745661912735 -0.0910080958722449 0.094086093546604 -0.0193599046391737 -0.00382767433191511 -0.09687687889249 0.0373630944537152
"CP5" 0.00100149800691752 0.00469111608250126 -0.105252728632879 -0.101563110557295 -0.00905617580305749 -0.0448508454774095 0.00284630704470939 -0.103407919595087 -0.0269535106402335
"CP3" -0.00155348345601607 0.0018735267011057 -0.102294092460357 -0.0988670823032351 0.0145584879068643 -0.0175145449235316 0.000160021622544816 -0.100580587381796 -0.00147802850833366
"CP1" 0.00354802420892112 -0.000858339672127879 -0.0997366922748457 -0.104143056155895 -0.0347225292304911 0.00822141201549191 0.00134484226839662 -0.10193987421537 -0.0132505586074996
"P1" 0.00458080333833875 0.00257837930899832 -0.102998393518556 -0.105000817547897 -0.0440659563089976 -0.0247562923924441 0.00357959132366854 -0.103999605533226 -0.0344111243507209
"P3" -0.00302272217675256 0.00187401494742362 -0.102492773463409 -0.097596036339233 0.0271050354536498 -0.016320807958091 -0.000574353614664468 -0.100044404901321 0.00539211374777939
"P5" 0.00387207809122629 0.00536550381818808 -0.105955583916305 -0.104462158189343 -0.0368136714135968 -0.0516644084737459 0.00461879095470719 -0.105208871052824 -0.0442390399436713
"P7" -0.000342339832786765 -0.000832011785415187 -0.0999087674336864 -0.100398439386315 0.0013061833582959 0.00693176209357618 -0.000587175809100976 -0.100153603410001 0.00411897272593604
"P9" 0.000397800782415947 -0.00128982507272125 -0.0992205002949348 -0.100908126150072 -0.00269498516252216 0.0108032357036916 -0.000446012145152652 -0.100064313222503 0.00405412527058472
"PO7" -0.000117425468859909 -0.000472523162576536 -0.0999479970646665 -0.100303094758383 0.000317458725808472 0.00324803720187811 -0.000294974315718223 -0.100125545911525 0.00178274796384329
"PO3" 0.000165758860002959 0.000491802977814515 -0.101096216452908 -0.100770172335096 -0.00046402945352331 -0.00393061919584655 0.000328780918908737 -0.100933194394002 -0.00219732432468493
"O1" -0.00132360024675868 0.00140352720707938 -0.102342099868148 -0.0996149724143097 0.0103357778616539 -0.0126659181369926 3.99634801603503e-05 -0.100978536141229 -0.00116507013766934
"Oz" 0.000888125090195979 -0.000573321881446643 -0.100078502699701 -0.101539949671344 -0.00613243558103728 0.00424619493897895 0.000157401604374668 -0.100809226185522 -0.000943120321029162
"POz" 2.88629588122345e-05 -1.62330022166026e-05 -0.100583094443673 -0.100628190404702 -7.36035543300692e-05 3.04257888036e-05 6.31497829781595e-06 -0.100605642424187 -2.15888827632346e-05
"Pz" 0.00157921397542903 0.00152923892378504 -0.102149140832291 -0.102199115883935 -0.0126910097939396 -0.0130670991945591 0.00155422644960704 -0.102174128358113 -0.0128790544942493
"CPz" 0.00136207472215253 -0.00144552614893859 -0.0991182872977999 -0.101925888168891 -0.0126153005691546 0.0135922448727371 -4.17257133930271e-05 -0.100522087733345 0.000488472151791233
"Fpz" 0.00206336397159611 -0.0155806413511951 -0.0849134297184598 -0.102557435041251 -0.0201255866087111 0.153331909407065 -0.00675863868979948 -0.0937354323798554 0.0666031613991768
"Fp2" -0.00484982661063208 -0.0228675073224457 -0.0775247405711714 -0.0955424212829851 0.0470932761454794 0.226748627585435 -0.0138586669665389 -0.0865335809270782 0.136920951865457
"AF8" -0.00444385418370038 -0.0121750276143358 -0.0884014148956928 -0.0961325883263283 0.0433265489903893 0.118844025221869 -0.00830944089901811 -0.0922670016110106 0.0810852871061293
"AF4" -0.000459541353278229 -0.0162333785779094 -0.0843191844481933 -0.100093021672824 0.00431880744634186 0.159610888318612 -0.00834645996559381 -0.0922061030605089 0.0819648478824769
"AFz" -0.00235690954254044 -0.00940760861973306 -0.0911726410321093 -0.0982233401093019 0.0233223195909185 0.0923373253946412 -0.00588225908113675 -0.0946979905707056 0.0578298224927798
"Fz" 0.00031630952181154 0.000250343155761621 -0.100928415302221 -0.100994381668271 -0.00136052800518519 -0.00113138746393806 0.00028332633878658 -0.100961398485246 -0.00124595773456162
"F2" 0.000171534479366436 0.000146364534722367 -0.100872693440351 -0.100897863384995 -0.000485572914461457 -0.000484262938867924 0.000158949507044401 -0.100885278412673 -0.00048491792666469
"F4" -1.98370649311424e-05 -4.30620937543474e-06 -0.100530998555763 -0.100515467700208 5.60046888322769e-05 1.628718075343e-05 -1.20716371532886e-05 -0.100523233127985 3.61459347928535e-05
"F6" -0.000149154533225355 -0.000293797424512185 -0.100271137557671 -0.100415780448958 0.000392056141971282 0.00161347421321416 -0.00022147597886877 -0.100343459003314 0.00100276517759272
"F8" 0.000711291160478815 -0.00161487416763207 -0.0991093090574019 -0.101435474385513 -0.00451726136014227 0.0139937187170661 -0.000451791503576628 -0.100272391721457 0.00473822867846192
"FT8" 0.00119703086729219 -0.0011802325019372 -0.0992051618625822 -0.101582425231812 -0.00906297407866188 0.0104482747335511 8.39918267749593e-06 -0.100393793547197 0.00069265032744459
"FC6" 3.66551996906977e-05 -0.000109155641263415 -0.100501674207645 -0.100647485048599 -5.21196792742291e-05 0.000594404910159043 -3.62502207863585e-05 -0.100574579628122 0.000271142615442407
"FC4" -0.00166348853745767 0.00110083339713559 -0.101609868685678 -0.0988455467510846 0.0134134366284299 -0.00896937290317315 -0.000281327570161041 -0.100227707718381 0.00222203186262838
"FC2" -0.00227708108340107 0.000506936698315932 -0.101085779034233 -0.0983017612525158 0.0200204957013323 -0.00378600786922264 -0.000885072192542569 -0.0996937701433743 0.00811724391605484
"FCz" 0.000141338265941037 -6.91069611448207e-05 -0.100601971027117 -0.100812416254203 -0.0010310395839208 0.00055937955004615 3.61156523981082e-05 -0.10070719364066 -0.000235830016937325
"Cz" -0.000777766153750553 0.00127962505115125 -0.101976982735507 -0.099919591530605 0.00735396285891776 -0.0122880422740534 0.000250929448700348 -0.100948287133056 -0.00246703970756783
"C2" -0.00563926410371479 -0.000886832877435932 -0.0996357449645758 -0.0948833137382969 0.0546817669707528 0.00870560008762702 -0.00326304849057536 -0.0972595293514363 0.0316936835291899
"C4" -0.000740036953611099 0.00192923618225308 -0.102513419864434 -0.0998441467285702 0.0062323817508815 -0.0172263754471986 0.000594599614320992 -0.101178783296502 -0.00549699684815855
"C6" -0.00088174774607184 0.00348199385213448 -0.104064886121674 -0.0997011445234679 0.00702036206237789 -0.0324638872455119 0.00130012305303132 -0.101883015322571 -0.012721762591567
"T8" -0.00808441929036475 0.00474608684867904 -0.105409857359088 -0.0925793512200441 0.0786885704344561 -0.0461617719301699 -0.00166916622084285 -0.098994604289566 0.0162633992521431
"TP8" -0.00713394577186627 0.00202461028401647 -0.102542415589517 -0.0933838595336345 0.0685306230162561 -0.0190087462716543 -0.0025546677439249 -0.0979631375615758 0.0247609383723009
"CP6" -0.00222631518947004 0.000368471630274353 -0.10091464619853 -0.098319859378786 0.0195022613270786 -0.00222698354259277 -0.000928921779597844 -0.0996172527886582 0.00863763889224294
"CP4" 0.00175775071446168 0.00512397126551912 -0.105767207403547 -0.10240098685249 -0.0164270254185476 -0.0485302165419965 0.0034408609899904 -0.104084097128018 -0.0324786209802721
"CP2" -0.000332781422575028 -0.000410102880397797 -0.100124036327525 -0.100201357785348 0.00294934001091383 0.00369640007952704 -0.000371442151486413 -0.100162697056437 0.00332287004522044
"P2" -0.00165827664815871 3.14521469502709e-06 -0.100660834724148 -0.0989994128612947 0.0144820902060913 -6.90904859993896e-05 -0.000827565716731842 -0.0998301237927215 0.00720649986004595
"P4" -0.0018248791566038 0.00149523939142998 -0.101999397517009 -0.0986792789689748 0.0159671667503515 -0.0129901373428946 -0.000164819882586907 -0.100339338242992 0.00148851470372844
"P6" -0.000237102105377462 0.000725538590129297 -0.101487740072853 -0.100525099377346 0.00169345312238082 -0.00607315677982407 0.000244218242375918 -0.101006419725099 -0.00218985182872162
"P8" -0.00424796358606024 -0.000695047444919526 -0.0998986444456391 -0.0963457283044984 0.0391431426840384 0.00582067329657927 -0.00247150551548988 -0.0981221863750688 0.0224819079903088
"P10" 0.00372629134302602 -0.0022621016770268 -0.0983978594009928 -0.104386252421046 -0.0336044952013759 0.0207299354412804 0.000732094832999612 -0.101392055911019 -0.00643727988004773
"PO8" -0.000137446734020542 0.000168601799787215 -0.10078499343388 -0.100478944900072 0.000600074218075003 -0.00137286724537833 1.55775328833363e-05 -0.100631969166976 -0.000386396513651661
"PO4" -0.00295037080871115 -0.00460555157992892 -0.0961251765383325 -0.0977803573095503 0.0278418263650068 0.0440170101053312 -0.00377796119432004 -0.0969527669239414 0.035929418235169
"O2" 0.00605553070815373 -0.00402835281421595 -0.0967188044346468 -0.106802687957016 -0.0565536256426382 0.0380945143770561 0.00101358894696889 -0.101760746195832 -0.00922955563279107
