"ACME_control" "ACME_treated" "ADE_control" "ADE_treated" "Prop_Mediated_control" "Prop_Mediated_treated" "ACME_average" "ADE_average" "Prop_Mediated_average"
"Fp1" -0.00230270832984162 -0.000933259861249678 0.00565482925783695 0.00702427772642889 -0.00900263569448794 -0.0121130147657199 -0.00161798409554565 0.00633955349213292 -0.0105578252301039
"AF7" -0.0032585050935023 -0.00567579347187991 0.0108340079189031 0.00841671954052553 -0.0329401370193434 -0.148132961081277 -0.0044671492826911 0.00962536372971434 -0.09053654905031
"AF3" 0.000606966818631558 -0.000914231478975393 0.00604301961590187 0.00452182131829492 0.000743918817093262 -0.00312845178309017 -0.000153632330171918 0.0052824204670984 -0.00119226648299845
"F1" -0.00216671729378946 -0.00400707453729806 0.0089751494533854 0.00713479220987679 -0.012887130787414 -0.0646797448970194 -0.00308689591554376 0.0080549708316311 -0.0387834378422167
"F3" 1.74827595349092e-05 -0.000134313614524681 0.00506416740143023 0.00491237102737064 0.000368925360914562 0.00967004208188801 -5.84154274948858e-05 0.00498826921440043 0.00501948372140129
"F5" -0.000576936874196128 0.00249819049845805 0.0025451582706075 0.00562028564326168 -0.002047588018339 0.0565938550767241 0.000960626812130959 0.00408272195693459 0.0272731335291925
"F7" 0.000439828462083377 0.00401817673113386 0.000889912535314809 0.00446826080436529 0.00359059082869744 0.100437975256965 0.00222900259660862 0.00267908666984005 0.0520142830428314
"FT7" 0.000310827286071864 0.0111522955619388 -0.00599753049933742 0.00484393777652956 0.0131991068680825 0.355401867816762 0.00573156142400535 -0.00057679636140393 0.184300487342422
"FC5" 0.000770461314675995 0.00497189464181826 -0.000180732286701654 0.00402070104044061 0.00635195528070888 0.137002435082693 0.00287117797824713 0.00191998437686948 0.0716771951817008
"FC3" 2.05526436056413e-05 0.00160553222929906 0.00337792014806885 0.00496289973376227 0.000523617032384138 0.0541080836251469 0.00081304243645235 0.00417040994091556 0.0273158503287655
"FC1" 5.00137129668636e-05 -0.0038166784369482 0.00871131770866522 0.00484462555875016 -0.000622306249656247 -0.0418498519273785 -0.00188333236199067 0.00677797163370769 -0.0212360790885174
"C1" 0.000766346405398098 -0.00857186672732843 0.0134640652904159 0.00412585215768933 0.00169839065312399 -0.192313172174873 -0.00390276016096517 0.0087949587240526 -0.0953073907608744
"C3" -0.000881146947049516 -0.00171906311076584 0.00656842859534259 0.00573051243162627 0.00178309116678535 0.00576913755086977 -0.00130010502890768 0.00614947051348443 0.00377611435882756
"C5" -0.00142264145001787 0.00491592401997875 8.51818859738631e-05 0.00642374735597048 -0.0028104337319023 0.116247062391172 0.00174664128498044 0.00325446462097217 0.056718314329635
"T7" -0.0197962071061911 0.0132239376071811 -0.00794276205752305 0.0250773826558492 -0.608151878349247 0.415954269984578 -0.003286134749505 0.00856731029916305 -0.0960988041823347
"TP7" 0.00155444848932649 0.00556657931687356 -0.000562476040267863 0.0034496547872792 0.0222439614786131 0.15969638381642 0.00356051390310003 0.00144358937350567 0.0909701726475163
"CP5" -0.00539150833622158 0.00489414307897623 0.00040618896300796 0.0106918403782058 -0.1106087608736 0.115813726528998 -0.000248682628622676 0.00554901467060686 0.00260248282769866
"CP3" -0.000952934158778868 -0.00265795471272531 0.00754737904196872 0.00584235848802228 -0.000517241857104234 -0.00870247349676275 -0.00180544443575209 0.0066948687649955 -0.00460985767693349
"CP1" 0.00131576000922317 -0.0145237674721514 0.0196356821919526 0.00379615471057806 0.0316763305858192 -0.455087754986618 -0.0066040037314641 0.0117159184512653 -0.211705712200399
"P1" -0.00649187762519842 -0.000774977971662561 0.0055773591873059 0.0112942588408418 -0.0989972623773628 -0.00523155747663053 -0.00363342779843049 0.00843580901407382 -0.0521144099269967
"P3" -0.000325292918040576 -0.000369771269806548 0.00509226969186764 0.00504779134010167 0.0287366080731757 0.0394039395615281 -0.000347532093923562 0.00507003051598465 0.0340702738173519
"P5" -0.00198558366128473 0.0052984854498853 -0.000703444111695314 0.00658062499947471 -0.00958943773537699 0.13547192145447 0.00165645089430028 0.0029385904438897 0.0629412418595464
"P7" -0.00290280513118919 0.00661026007038936 -0.00135265071387492 0.00816041448770363 -0.0298468098196037 0.198383489608139 0.00185372746960009 0.00340388188691436 0.0842683398942679
"P9" 0.000275350817096433 0.0013334777659375 0.00373599690603606 0.00479412385487713 0.0152108670392401 0.0336276738741626 0.000804414291516969 0.0042650603804566 0.0244192704567014
"PO7" 0.00494238949446057 0.00944288976640851 -0.00434013858243624 0.000160361689511691 0.100316775058393 0.328676349107623 0.00719263963043454 -0.00208988844646228 0.214496562083008
"PO3" 0.00572327688962633 0.0106381737241784 -0.0055476497697954 -0.000632752935243378 0.113913228965105 0.379423917226544 0.00818072530690234 -0.00309020135251939 0.246668573095825
"O1" 0.00322567793911471 0.00125380463613103 0.00384912241847651 0.00187724911549283 0.0760665697678882 0.0318583799729728 0.00223974128762287 0.00286318576698467 0.0539624748704305
"Oz" 0.00675331553466622 0.00733374372726523 -0.00232932434027885 -0.00174889614767984 0.139043752365578 0.241029317946468 0.00704352963096573 -0.00203911024397935 0.190036535156023
"POz" 0.000617750542392058 0.00307070672518489 0.00198798935547441 0.00444094553826724 0.00548093541255589 0.0740825521334078 0.00184422863378847 0.00321446744687082 0.0397817437729818
"Pz" 5.65731101032714e-05 0.000237990078475413 0.00485865050717093 0.00504006747554307 0.000953281661687727 0.0150269172925528 0.000147281594289342 0.004949358991357 0.00799009947712024
"CPz" -1.03436625630482e-05 -7.56219722980071e-05 0.00491224979674579 0.00484697148701084 0.000439782876245947 0.031361080907554 -4.29828174305277e-05 0.00487961064187832 0.0159004318919
"Fpz" -0.00147821652896079 -0.00937882681692938 0.0147477043032943 0.00684709401532566 -0.00926582637215646 -0.282958094550102 -0.00542852167294508 0.01079739915931 -0.146111960461129
"Fp2" -0.000814034130256967 -0.00830399710239786 0.0134701446974294 0.00598018172528846 0.0109566594396477 -0.188996331632372 -0.00455901561632741 0.0097251632113589 -0.0890198360963619
"AF8" -0.00281945547524287 -0.00431425288890664 0.00913375834831684 0.00763896093465307 -0.00974437694169357 -0.0300085705142394 -0.00356685418207475 0.00838635964148495 -0.0198764737279665
"AF4" 0.000498680491045451 -0.00779848309491451 0.0128549648613848 0.0045578012754248 0.00527550545601927 -0.189036508393642 -0.00364990130193453 0.00870638306840478 -0.0918805014688114
"AFz" -0.00214960651057631 -0.00405100030832975 0.00909548691455381 0.00719409311680037 -0.0144212997812998 -0.0737750724669936 -0.00310030340945303 0.00814479001567709 -0.0440981861241467
"Fz" -8.50886493757874e-05 -0.0027044243263234 0.00734195129159959 0.00472261561465198 0.000764061991908284 -0.0317031048126468 -0.00139475648784959 0.00603228345312579 -0.0154695214103692
"F2" 4.24211612658016e-05 -0.000283223725482747 0.00519003528010913 0.00486439039336058 -4.47131035292888e-06 0.000242135219224129 -0.000120401282108473 0.00502721283673486 0.0001188319544356
"F4" -0.00125114036198275 -0.00284895383462587 0.00785515718832566 0.00625734371568253 -0.00104698087271255 -0.026631996817098 -0.00205004709830431 0.0070562504520041 -0.0138394888449053
"F6" -2.31115483554189e-06 -8.0627942672803e-05 0.00469666769424908 0.00461835090641182 0.0032649201284513 0.0224581398284586 -4.14695487541725e-05 0.00465750930033045 0.012861529978455
"F8" 0.000285540111917131 0.00126161520377036 0.00353382966003255 0.00450990475188578 0.00219173884731963 0.0388961474234561 0.000773577657843744 0.00402186720595916 0.0205439431353879
"FT8" -0.000275745272674598 0.00065872607768648 0.00447326640525664 0.00540773775561771 -0.000798175503755217 0.0111492468838065 0.000191490402505941 0.00494050208043717 0.00517553569002564
"FC6" 0.000143742747042685 0.00295538797175527 0.00241534786802154 0.00522699309273413 0.00301906645747173 0.0663428820416353 0.00154956535939898 0.00382117048037784 0.0346809742495535
"FC4" 0.00129592892645212 0.00140486833614067 0.00372703110806073 0.00383597051774928 0.0541450697160858 0.0700178469747887 0.0013503986312964 0.003781500812905 0.0620814583454373
"FC2" -0.00228417745298795 -0.00474464404162623 0.00974683145937631 0.00728636487073803 -0.0195469047839248 -0.110617843184321 -0.00351441074730709 0.00851659816505717 -0.0650823739841229
"FCz" 0.0011174910489118 -0.00827140517306381 0.0129844163331335 0.00359552011115789 0.0114000058640401 -0.220478687541332 -0.003576957062076 0.00828996822214569 -0.104539340838646
"Cz" -0.00142165312868706 -0.0138005808652693 0.0186451728501584 0.00626624511357612 -0.017812358181333 -0.407780542708218 -0.00761111699697818 0.0124557089818672 -0.212796450444776
"C2" -0.00251858328912722 -0.00837054200631231 0.0130620500956967 0.00721009137851158 -0.015746730793184 -0.1430986278418 -0.00544456264771977 0.0101360707371041 -0.0794226793174922
"C4" -0.000135186663958809 0.000481635783095382 0.00461084813678774 0.00522767058384193 -0.000710154354866362 0.0252337518959559 0.000173224559568287 0.00491925936031483 0.0122617987705448
"C6" -0.00109651394801432 0.00318330760749787 0.00212463853738043 0.00640446009289262 -0.00867987746501008 0.0768366854029966 0.00104339682974177 0.00426454931513652 0.0340784039689933
"T8" -0.000143341755088234 -0.00158125272620324 0.00661760981763603 0.00517969884652103 -5.75388488275e-05 -0.0119777407640239 -0.000862297240645736 0.00589865433207853 -0.00601763980642571
"TP8" 0.000892675832283199 0.00390853893824673 0.000937599682955706 0.00395346278891924 0.00903295040665311 0.10693718793692 0.00240060738526497 0.00244553123593747 0.0579850691717867
"CP6" 0.000331682348181968 0.00512641741442838 -0.000194344103662075 0.00460039096258433 0.00680159809503721 0.153574277174598 0.00272904988130517 0.00220302342946113 0.0801879376348179
"CP4" 0.00141649990055075 0.0114289723028639 -0.0067139286227214 0.00329854377959178 0.0134360717593493 0.382268985917359 0.00642273610170734 -0.00170769242156481 0.197852528838354
"CP2" -0.000860324324624349 -0.00444336856431372 0.00970785649016448 0.0061248122504751 4.49400342243712e-05 -0.0131421190872025 -0.00265184644446904 0.00791633437031979 -0.00654858952648904
"P2" -0.000929795258287888 -0.00254022753317627 0.00753453181764495 0.00592409954275657 0.00541494166646082 0.0287650732245138 -0.00173501139573208 0.00672931568020076 0.0170900074454873
"P4" 0.00346125221708121 0.00835234473453365 -0.0031978340358864 0.00169325848156604 0.0506675279967793 0.274706831099654 0.00590679847580743 -0.000752287777160181 0.162687179548216
"P6" 0.00544551661448987 0.0145694370178327 -0.0097362859962695 -0.000612365592926629 0.0760071028885752 0.51986374769639 0.0100074768161613 -0.00517432579459806 0.297935425292482
"P8" 0.0166823170756592 0.00818792459502261 -0.00352449752595541 -0.012018890006592 0.454670492609245 0.253844666121271 0.0124351208353409 -0.00777169376627373 0.354257579365258
"P10" 0.00920789930455439 0.0114570057611602 -0.00642489145064183 -0.00417578499403605 0.170014365248489 0.382906467519099 0.0103324525328573 -0.00530033822233894 0.276460416383794
"PO8" 0.0248703097613316 0.0218006017849998 -0.0171155795423856 -0.0201852875187173 0.78425484194846 0.820294549024294 0.0233354557731657 -0.0186504335305515 0.802274695486377
"PO4" 0.000265620598588188 0.0161246777238572 -0.0112668638121739 0.00459219331309507 0.0350853206254772 0.58482643655061 0.00819514916122269 -0.00333733524953944 0.309955878588044
"O2" 0.0322115963248899 0.0197091661020599 -0.0149077738809325 -0.0274102041037625 1.02533582549857 0.714861773066863 0.0259603812134749 -0.0211589889923475 0.870098799282717
